#FORMAT      : EMSA/MAS Spectral Data File
#VERSION     : 1.0
#TITLE       : penepma bulk-Cu-20kV 8hr sim
#DATE        : 19-Jul-2018
#TIME        : 17:46:43
#OWNER       : Penepma
#NPOINTS     : 4096
#NCOLUMNS    : 1
#XUNITS      : keV
#YUNITS      : counts
#DATATYPE    : Y
#XPERCHAN    : 0.0048828
#OFFSET      : 0.0
#BEAMKV      : 20
#XLABEL      : Energy [keV]
#YLABEL      : Counts
#SPECTRUM    : 
10.00 
10.00 
10.00 
10.00 
10.00 
10.00 
10.00 
10.00 
10.00 
10.00 
2322.08 
2777.57 
2588.21 
4265.24 
3919.65 
2355.16 
1953.60 
1644.86 
1814.07 
1716.51 
1651.00 
1784.39 
1609.03 
1609.03 
1719.90 
1681.70 
1764.24 
1716.14 
1553.76 
1660.54 
2012.60 
1706.60 
1585.49 
1674.54 
1610.05 
1751.63 
1625.41 
1743.45 
1819.19 
1705.25 
1844.78 
1792.58 
1751.31 
1903.12 
1818.86 
1912.33 
2057.68 
2004.45 
1999.01 
2099.64 
2137.51 
2049.16 
2120.81 
2167.89 
2210.88 
2187.34 
2209.86 
2318.68 
2333.71 
2366.46 
2487.57 
2382.84 
2642.45 
2466.08 
2481.10 
2501.57 
2597.79 
2701.17 
2678.65 
2763.93 
2869.36 
2890.53 
2855.72 
3171.63 
3188.01 
3075.09 
3144.37 
3302.65 
3200.99 
3132.08 
3437.76 
3370.90 
3260.03 
3736.97 
3532.62 
3629.16 
3690.25 
3506.71 
3812.38 
3796.70 
3807.63 
3940.00 
3831.17 
3912.04 
3941.72 
4188.03 
3880.30 
4132.10 
4230.69 
4318.71 
4157.69 
4275.73 
4460.99 
4420.74 
4283.59 
4220.12 
4470.90 
4469.87 
4809.00 
4631.60 
4731.21 
4684.82 
4832.54 
5045.77 
4863.25 
4867.01 
4894.65 
5042.70 
5081.26 
5035.20 
5203.39 
5135.18 
5033.85 
5050.23 
5387.31 
5389.36 
5391.07 
5494.09 
5378.10 
5359.34 
5483.19 
5599.88 
5510.83 
5608.40 
5562.01 
5766.02 
5711.45 
5763.98 
5669.48 
5640.82 
6064.21 
6022.24 
6013.36 
5818.22 
5922.63 
5879.31 
5929.47 
6116.41 
6139.62 
6006.23 
6054.34 
5891.59 
6027.73 
6287.34 
6149.53 
6248.12 
6168.98 
6101.42 
6374.02 
6464.42 
6179.21 
6184.33 
6314.32 
6231.41 
6435.10 
6536.76 
2076661.00 
6565.42 
6506.06 
6469.90 
1054214.00 
6519.03 
6295.90 
6533.36 
6395.18 
14468.71 
6392.11 
6451.48 
6547.69 
9656.52 
6716.91 
6545.65 
6631.63 
6514.94 
6589.66 
6789.58 
6534.39 
6564.07 
6571.24 
6776.97 
2585073.00 
6481.16 
3127.99 
2005.15 
319616.80 
1579.35 
1382.83 
1155.60 
1067.57 
1032.77 
1023.56 
970.33 
1006.16 
1009.23 
936.55 
1059.38 
1048.12 
1011.27 
1052.22 
47808.99 
1097.25 
1137.17 
1179.14 
1135.12 
1140.24 
1088.04 
1186.30 
1165.83 
1189.37 
1176.07 
1206.77 
1197.56 
1180.16 
1323.79 
1162.76 
1243.62 
1026.63 
1070.64 
1036.86 
1057.33 
1104.42 
1119.77 
1078.83 
1082.92 
1069.62 
1090.09 
1165.83 
1189.37 
1177.09 
1191.42 
1162.76 
1155.60 
1174.02 
1248.74 
1168.90 
1254.88 
1193.47 
1244.64 
1248.74 
1200.63 
1240.55 
1220.08 
1263.07 
1305.04 
1261.02 
1308.11 
1355.19 
1261.02 
1281.49 
1370.54 
1328.58 
1309.13 
1368.50 
1336.77 
1353.14 
1362.35 
1380.78 
1386.92 
1379.75 
1410.46 
1402.27 
1397.15 
1439.12 
1426.84 
1394.09 
1410.46 
1464.71 
1468.80 
1467.78 
1367.47 
1472.90 
1582.42 
1521.01 
1513.84 
1514.86 
1490.30 
1516.91 
1523.05 
1560.92 
1513.84 
1622.34 
1613.13 
1549.66 
1526.12 
1556.83 
1565.02 
1576.28 
1601.87 
1614.15 
1596.75 
1700.13 
1578.33 
1692.96 
1647.93 
1668.40 
1659.19 
1669.42 
1710.36 
1667.37 
1750.28 
1672.49 
1765.64 
1719.58 
1760.52 
1761.54 
1717.53 
1746.19 
1804.53 
1811.70 
1734.93 
1841.38 
1755.40 
1822.95 
1862.87 
1736.98 
1826.03 
1949.18 
1939.64 
1858.78 
1855.71 
1880.27 
1909.96 
1927.36 
1788.15 
1833.19 
1815.79 
1823.98 
1978.54 
1901.77 
1920.19 
1945.78 
1873.11 
1965.23 
1986.72 
1930.43 
1935.55 
1919.17 
2000.03 
2004.13 
1981.61 
1999.01 
2039.95 
2004.13 
2018.45 
1966.25 
1943.73 
1986.72 
1926.33 
2065.54 
2033.81 
1980.58 
2023.57 
2049.16 
2032.78 
2042.00 
2039.95 
2123.88 
2081.91 
2069.63 
2100.34 
2103.41 
2087.03 
2060.42 
2063.49 
2081.91 
2109.55 
2045.07 
2075.77 
2053.26 
2090.10 
2185.29 
2092.15 
2068.61 
2194.51 
2214.98 
2180.18 
2149.47 
2123.88 
2205.76 
2102.39 
2241.59 
2153.56 
2228.28 
2182.22 
2130.02 
2190.41 
2135.14 
2159.70 
2270.25 
2152.54 
2221.12 
2227.26 
2161.75 
2187.34 
2206.79 
2170.96 
2251.83 
2168.92 
2207.81 
2263.08 
2293.79 
2250.80 
2320.40 
2294.81 
2248.76 
2171.99 
2157.66 
2198.60 
2291.74 
2274.34 
2363.39 
2353.16 
2256.94 
2351.11 
2242.61 
2272.30 
2201.67 
2254.90 
2261.04 
2253.87 
2242.61 
2288.67 
2366.46 
2295.84 
2275.37 
2431.97 
2303.00 
2378.75 
2355.20 
2404.34 
2349.06 
2289.70 
2335.76 
2309.14 
2387.96 
2298.91 
2355.20 
2371.58 
2282.53 
2305.05 
2373.63 
2353.16 
2465.75 
2344.97 
2375.68 
2392.05 
2398.19 
2366.46 
2332.69 
2266.16 
2428.90 
2367.49 
2353.16 
2380.79 
2437.09 
2384.89 
2413.55 
2457.56 
2386.93 
2402.29 
2350.09 
2375.68 
2378.75 
2367.49 
2324.50 
2407.41 
2445.28 
2462.68 
2354.18 
2438.11 
2456.54 
2502.60 
2507.72 
2428.90 
2412.52 
2394.10 
2338.83 
2383.86 
2398.19 
2472.91 
2299.93 
2443.23 
2360.32 
2367.49 
2430.95 
2445.28 
2456.54 
2414.57 
2387.96 
2479.05 
2459.61 
2380.79 
2425.83 
2495.43 
2439.14 
2483.15 
2458.58 
2402.29 
2377.72 
2420.71 
2375.68 
2528.19 
2455.51 
2395.12 
2492.36 
2473.94 
2557.87 
2454.49 
2368.51 
2387.96 
2491.34 
2472.91 
2466.77 
2455.51 
2478.03 
2451.42 
2416.62 
2345.99 
2404.34 
2414.57 
2444.25 
2496.46 
2447.32 
2435.04 
2558.20 
2371.58 
2347.02 
2495.43 
2482.13 
2418.66 
2451.42 
2373.63 
2452.44 
2405.36 
2469.84 
2455.51 
2525.11 
2408.43 
2505.67 
2364.42 
2538.42 
2426.85 
2488.27 
2428.90 
2418.66 
2468.82 
2387.96 
2460.63 
2487.24 
2402.29 
2512.83 
2319.38 
2509.76 
2415.59 
2473.94 
2399.22 
2457.56 
2339.85 
2414.57 
2345.99 
2456.54 
2367.49 
2404.34 
2375.68 
2398.19 
2478.03 
2436.07 
2421.74 
2412.52 
2429.92 
2458.58 
2379.77 
2386.93 
2444.25 
2369.53 
2460.63 
2394.10 
2462.68 
2355.20 
2414.57 
2469.84 
2436.07 
2424.81 
2399.22 
2394.10 
2388.98 
2427.88 
2486.22 
2479.05 
2431.97 
2443.23 
2429.92 
2377.72 
2373.63 
2355.20 
2380.79 
2411.50 
2365.44 
2430.95 
2307.10 
2333.71 
2410.48 
2464.72 
2369.53 
2351.11 
2417.64 
2371.58 
2340.88 
2353.16 
2366.46 
2420.71 
2358.28 
2335.76 
2237.50 
2399.22 
2364.42 
2338.83 
2409.45 
2388.98 
2271.27 
2431.97 
2264.11 
2278.44 
2329.62 
2356.23 
2330.64 
2336.78 
2426.16 
2342.92 
2297.88 
2392.05 
2375.68 
2262.06 
2337.80 
2317.33 
2296.86 
2359.30 
2256.94 
2322.45 
2341.90 
2205.76 
2251.83 
2330.64 
2249.78 
2256.94 
2225.21 
2284.58 
2350.09 
2332.69 
2360.32 
2260.01 
2340.88 
2273.32 
2402.29 
2225.21 
2193.48 
2312.21 
2278.44 
2296.86 
2463.01 
2281.51 
2295.84 
2244.66 
2271.27 
2304.03 
2354.18 
2330.64 
2187.34 
2402.29 
2278.44 
2270.25 
2100.34 
2244.66 
2269.23 
2331.66 
2332.69 
2311.19 
2261.04 
2240.57 
2276.39 
2326.55 
2275.37 
2183.25 
2227.26 
2193.48 
2260.01 
2179.15 
2214.98 
2198.60 
2324.50 
2285.60 
2183.25 
2218.05 
2324.50 
2168.92 
2271.27 
2352.46 
2203.72 
2187.34 
2114.67 
2196.55 
2165.85 
2182.22 
2262.06 
2182.22 
2149.47 
2285.60 
2167.89 
2184.27 
2202.69 
2173.01 
2185.29 
2146.40 
2135.14 
2166.87 
2102.39 
2219.07 
2106.48 
2122.86 
2147.42 
2188.36 
2191.43 
2122.86 
2174.03 
2150.49 
2135.14 
2123.88 
2186.32 
2114.67 
2123.88 
2129.00 
2175.06 
2111.60 
2232.38 
2188.36 
2130.02 
2046.09 
2091.13 
2195.53 
2205.76 
2125.93 
2208.84 
2074.75 
2123.88 
2037.90 
2245.68 
2191.43 
2078.84 
2115.69 
2188.36 
2131.05 
2118.76 
2009.24 
2121.83 
2116.72 
2022.55 
2158.68 
2023.57 
2030.74 
2068.61 
2175.06 
2086.01 
2133.09 
2101.36 
2125.93 
2095.22 
2072.70 
2052.23 
1971.37 
2093.17 
2028.69 
2077.82 
1995.94 
1981.61 
1990.82 
2003.10 
2057.35 
2038.92 
2130.02 
1999.01 
2007.20 
2032.78 
2020.50 
1960.11 
2003.10 
2057.35 
2038.92 
1942.71 
2043.02 
1923.26 
2049.16 
2010.27 
1988.77 
2014.36 
1950.90 
1946.80 
2066.56 
1999.01 
1940.66 
2027.67 
2022.55 
2007.20 
1908.93 
1913.03 
2052.23 
1967.28 
2020.50 
2066.56 
1913.03 
1965.23 
1995.94 
1935.55 
2004.13 
1959.09 
2048.14 
1997.98 
1952.95 
1952.95 
1939.64 
1923.26 
1900.75 
1949.88 
1968.30 
2044.04 
1940.66 
1953.97 
1951.92 
1959.09 
1923.26 
1869.01 
1953.97 
1947.83 
1873.11 
1924.29 
1980.58 
1954.99 
1919.17 
1854.68 
1865.94 
1864.92 
1925.31 
1943.73 
1909.96 
1852.64 
1873.11 
1927.36 
1903.82 
1813.74 
1893.58 
1794.30 
1968.30 
1854.68 
1887.44 
1809.65 
1893.58 
1819.88 
1823.98 
1802.48 
1895.63 
1862.87 
1877.20 
1898.70 
1949.88 
1860.83 
1880.27 
1855.71 
1807.60 
1806.58 
1823.98 
1863.90 
1835.24 
1907.91 
1818.86 
1782.01 
1859.80 
1873.11 
1747.21 
1844.45 
1873.11 
1813.74 
1779.97 
1881.30 
1822.95 
1848.54 
1813.74 
1784.06 
1797.37 
1775.87 
1913.03 
1759.49 
1714.46 
1856.73 
1872.09 
1845.47 
1819.88 
1805.56 
1864.92 
1743.12 
1840.36 
1839.33 
1864.92 
1899.72 
1817.84 
1735.95 
1725.72 
1743.12 
1709.34 
1764.61 
1765.64 
1778.94 
1753.35 
1836.26 
1789.18 
1682.73 
1762.57 
1714.46 
1847.52 
1759.49 
1738.00 
1717.53 
1750.28 
1746.19 
1733.91 
1810.67 
1720.60 
1642.81 
1796.34 
1735.95 
1674.54 
1677.61 
1754.38 
1769.73 
1723.67 
1752.33 
1749.26 
1668.40 
1766.66 
1812.72 
1679.66 
1698.08 
1735.95 
1690.92 
1774.85 
1706.27 
1741.07 
1761.54 
1739.02 
1699.10 
1748.24 
1689.89 
1734.93 
1668.40 
1670.45 
1782.01 
1728.79 
1631.55 
1666.35 
1574.23 
1708.32 
1684.77 
1642.81 
1742.09 
1668.40 
1615.17 
1670.45 
1721.62 
1631.55 
1702.18 
1717.53 
1625.41 
1646.90 
1640.76 
1637.69 
1710.36 
1638.72 
1661.23 
1686.82 
1716.51 
1588.56 
1655.09 
1624.39 
1618.24 
1692.96 
1646.90 
1574.23 
1663.28 
1625.41 
1588.56 
1622.34 
1616.20 
1594.70 
1677.61 
1617.22 
1617.22 
1617.22 
1617.22 
1610.05 
1631.55 
1610.05 
1628.48 
1602.89 
1585.49 
1538.41 
1585.49 
1578.33 
1603.91 
1611.08 
1612.10 
1571.16 
1573.21 
1622.34 
1595.72 
1564.00 
1641.79 
1595.72 
1533.29 
1605.96 
1600.84 
1559.90 
1557.85 
1560.92 
1504.63 
1539.43 
1510.77 
1628.48 
1501.56 
1586.51 
1606.98 
1500.54 
1546.60 
1557.85 
1548.64 
1518.96 
1513.84 
1605.96 
1577.30 
1517.93 
1561.95 
1634.62 
1555.81 
1569.11 
1457.55 
1548.64 
1533.29 
1618.24 
1488.25 
1633.60 
1438.10 
1474.95 
1529.19 
1574.23 
1487.23 
1481.09 
1487.23 
1525.10 
1484.16 
1528.17 
1510.77 
1493.37 
1475.97 
1481.09 
1546.60 
1537.38 
1517.93 
1480.06 
1483.13 
1501.56 
1484.16 
1538.41 
1430.93 
1446.29 
1507.70 
1510.77 
1449.36 
1476.99 
1502.58 
1456.52 
1460.62 
1408.41 
1484.16 
1410.46 
1454.47 
1414.56 
1550.69 
1405.34 
1484.16 
1393.06 
1460.62 
1459.59 
1507.70 
1479.04 
1388.97 
1452.43 
1468.80 
1397.15 
1364.40 
1473.92 
1437.07 
1414.56 
1456.52 
1360.31 
1459.59 
1451.40 
1459.59 
1428.89 
1398.18 
1408.41 
1428.89 
1462.66 
1449.36 
1383.85 
1387.94 
1414.56 
1449.36 
1393.06 
1397.15 
1337.79 
1365.42 
1436.05 
1394.09 
1422.74 
1372.59 
1357.24 
1414.56 
1461.64 
1381.80 
1409.44 
1389.99 
1437.07 
1370.54 
1361.33 
1403.30 
1353.14 
1405.34 
1405.34 
1308.11 
1379.75 
1353.14 
1344.95 
1382.83 
1407.39 
1312.20 
1317.32 
1370.54 
1338.81 
1342.91 
1388.97 
1394.09 
1389.99 
1368.50 
1379.75 
1308.11 
1315.27 
1341.88 
1362.35 
1385.90 
1364.40 
1370.54 
1334.72 
1335.74 
1388.97 
1339.84 
1307.08 
1341.88 
1377.71 
1299.92 
1292.75 
1350.07 
1341.88 
1354.17 
1349.05 
1291.73 
1323.46 
1349.05 
1335.74 
1274.33 
1250.79 
1348.03 
1245.67 
1320.39 
1287.63 
1367.47 
1358.26 
1316.29 
1284.56 
1338.81 
1359.28 
1288.66 
1274.33 
1325.51 
1306.06 
1278.42 
1337.79 
1232.36 
1299.92 
1335.74 
1332.67 
1220.08 
1191.42 
1318.34 
1306.06 
1335.74 
1220.08 
1327.55 
1184.25 
1242.60 
1284.56 
1275.35 
1243.62 
1242.60 
1260.00 
1257.95 
1276.38 
1333.69 
1256.93 
1315.27 
1257.95 
1295.82 
1242.60 
1246.69 
1281.49 
1253.86 
1281.49 
1280.47 
1301.96 
1224.17 
1275.35 
1276.38 
1238.50 
1244.64 
1228.27 
1253.86 
1166.86 
1220.08 
1154.57 
1290.70 
1232.36 
1161.74 
1202.68 
1222.13 
1186.30 
1225.20 
1201.66 
1236.46 
1194.49 
1207.80 
1247.72 
1228.27 
1162.76 
1228.27 
1249.76 
1076.78 
1218.03 
1192.44 
1269.21 
1136.15 
1202.68 
1199.61 
1211.89 
1221.10 
1141.27 
1178.11 
1165.83 
1131.03 
1157.64 
1176.07 
1166.86 
1192.44 
1192.44 
1227.25 
1192.44 
1159.69 
1201.66 
1181.18 
1193.47 
1169.93 
1211.89 
1144.34 
1178.11 
1087.02 
1149.45 
1162.76 
1143.31 
1170.95 
1183.23 
1105.44 
1179.14 
1142.29 
1195.51 
1147.41 
1189.37 
1264.09 
1183.23 
1135.12 
1128.98 
1122.84 
1199.61 
1182.21 
1136.15 
1143.31 
1157.64 
1119.77 
1209.84 
1157.64 
1212.92 
1202.68 
1134.10 
1145.36 
1089.07 
1128.98 
1152.53 
1151.50 
1064.50 
1106.46 
1138.19 
1117.72 
1151.50 
1103.39 
1135.12 
1167.88 
1072.69 
1097.25 
1123.87 
1152.53 
1082.92 
1098.28 
1115.68 
1123.87 
1059.38 
1090.09 
1091.11 
1123.87 
1054.26 
1120.80 
1142.29 
1143.31 
1166.86 
1120.80 
1061.43 
1122.84 
1088.04 
1149.45 
1130.01 
1105.44 
1076.78 
1113.63 
1117.72 
1098.28 
1071.66 
1072.69 
1131.03 
1099.30 
1111.58 
1125.91 
1140.24 
1043.01 
1135.12 
1061.43 
1091.11 
1029.70 
1153.55 
1048.12 
1018.44 
1082.92 
1089.07 
1081.90 
1097.25 
1069.62 
1059.38 
1023.56 
1137.17 
1107.49 
1104.42 
1067.57 
1103.39 
1069.62 
1092.13 
1056.31 
1025.60 
1065.52 
1065.52 
1092.13 
1096.23 
1072.69 
1037.89 
1035.84 
1050.17 
1051.19 
1007.18 
1108.51 
990.80 
1147.41 
1088.04 
1021.51 
1074.73 
1045.05 
1022.53 
1059.38 
1033.79 
1089.07 
1088.04 
1057.33 
997.97 
1023.56 
1051.19 
1071.66 
1001.04 
997.97 
1017.42 
1068.59 
1021.51 
1000.01 
1036.86 
1005.13 
1009.23 
1059.38 
1031.75 
981.59 
996.94 
1060.40 
1027.65 
1011.27 
1030.72 
1066.55 
1079.85 
1063.48 
1048.12 
954.98 
975.45 
1022.53 
961.12 
1035.84 
1002.06 
1005.13 
971.36 
997.97 
972.38 
978.52 
936.55 
1002.06 
1010.25 
1053.24 
1019.46 
978.52 
984.66 
1050.17 
918.13 
1002.06 
941.67 
948.84 
980.57 
1036.86 
962.14 
969.31 
1018.44 
1005.13 
924.27 
971.36 
946.79 
975.45 
945.77 
940.65 
1011.27 
990.80 
948.84 
969.31 
947.81 
910.97 
956.00 
961.12 
1034.82 
957.03 
937.58 
956.00 
965.21 
984.66 
954.98 
934.51 
949.86 
977.50 
904.82 
970.33 
964.19 
964.19 
909.94 
947.81 
929.39 
877.19 
967.26 
920.18 
902.78 
964.19 
907.90 
952.93 
992.85 
935.53 
910.97 
930.41 
916.08 
882.31 
897.66 
934.51 
953.96 
935.53 
961.12 
921.20 
958.05 
928.37 
906.87 
908.92 
878.21 
881.28 
983.64 
926.32 
907.90 
954.98 
981.59 
987.73 
901.75 
884.35 
878.21 
937.58 
927.34 
923.25 
1009.56 
933.48 
875.14 
863.88 
928.37 
916.08 
923.25 
886.40 
862.86 
869.00 
906.87 
896.64 
938.60 
853.65 
888.45 
966.24 
841.36 
891.52 
944.74 
945.77 
917.11 
923.25 
860.81 
923.25 
909.94 
883.33 
906.87 
920.18 
887.42 
929.39 
869.00 
911.99 
881.28 
867.98 
894.59 
892.54 
823.96 
854.67 
859.79 
835.22 
869.00 
860.81 
903.80 
861.84 
847.51 
821.92 
897.66 
862.86 
873.09 
895.61 
833.18 
829.08 
891.52 
853.65 
807.59 
873.09 
851.60 
878.21 
824.99 
864.91 
947.12 
893.57 
885.38 
852.62 
773.81 
911.99 
906.87 
1009.88 
807.59 
859.79 
793.26 
838.29 
969.64 
837.27 
813.73 
830.10 
848.53 
840.34 
895.61 
879.24 
831.13 
836.25 
884.35 
873.09 
833.18 
799.40 
802.47 
884.35 
926.65 
1028.31 
803.49 
890.82 
923.58 
799.40 
838.29 
784.04 
854.67 
835.22 
789.16 
801.45 
818.85 
856.72 
799.40 
793.26 
809.63 
853.65 
837.27 
873.09 
821.92 
917.43 
614065.40 
820.89 
826.01 
822.94 
1181823.00 
792.23 
808.61 
803.49 
774.83 
794.28 
786.09 
827.03 
860.81 
793.26 
810.66 
893.57 
817.82 
797.35 
828.06 
800.42 
765.62 
788.14 
804.52 
779.95 
780.97 
838.29 
770.74 
789.16 
754.36 
834.20 
813.73 
768.69 
729.80 
773.81 
798.37 
783.02 
802.47 
798.37 
838.29 
739.01 
803.49 
774.83 
800.42 
737.98 
733.89 
783.02 
815.77 
799.40 
753.34 
752.31 
798.37 
721.61 
728.77 
761.53 
736.96 
840.34 
801.45 
759.48 
786.09 
789.16 
756.41 
761.53 
737.98 
754.36 
771.76 
742.08 
743.10 
737.98 
772.79 
771.76 
788.14 
837.27 
782.00 
733.89 
741.06 
788.14 
714.44 
776.88 
791.21 
760.50 
714.44 
789.16 
788.14 
763.57 
769.71 
752.31 
745.15 
717.51 
769.71 
752.31 
734.91 
707.28 
763.57 
736.96 
742.08 
715.47 
762.55 
757.43 
734.91 
705.23 
703.18 
707.28 
703.18 
812.70 
787.12 
763.57 
730.82 
713.42 
763.57 
732.87 
720.58 
682.71 
697.04 
749.24 
732.87 
726.73 
712.40 
724.68 
731.84 
761.53 
744.13 
702.16 
698.07 
697.04 
676.57 
688.85 
691.92 
719.56 
728.77 
704.21 
710.35 
705.23 
689.88 
722.63 
723.65 
721.61 
756.41 
726.73 
737.98 
654.05 
696.02 
711.37 
705.23 
709.32 
680.67 
705.23 
742.08 
681.69 
697.04 
686.81 
690.90 
682.71 
703.18 
793.58 
700.11 
723.65 
737.98 
685.78 
723.65 
662.24 
704.21 
715.47 
675.55 
684.76 
715.47 
715.47 
680.67 
714.44 
722.63 
690.90 
701.14 
639.72 
728.77 
674.52 
685.78 
645.86 
659.17 
704.21 
730.82 
221791.30 
707.28 
726.73 
725.70 
642.79 
648.94 
658.15 
655.08 
707.28 
689.88 
662.24 
644.84 
674.52 
683.74 
636.65 
1049.11 
685.78 
566.03 
582.40 
548.63 
627.44 
566.03 
597.76 
614.13 
612.09 
598.78 
591.62 
575.24 
591.62 
585.47 
579.33 
583.43 
577.29 
609.02 
586.50 
619.25 
595.71 
620.28 
579.33 
581.38 
575.24 
578.31 
638.70 
537.37 
615.16 
610.04 
607.99 
577.29 
603.90 
603.90 
559.89 
574.22 
537.37 
593.66 
609.02 
589.57 
571.14 
575.24 
610.04 
572.17 
559.89 
595.71 
598.78 
593.66 
559.89 
575.24 
611.06 
582.40 
556.81 
565.00 
569.10 
553.74 
568.07 
553.74 
560.91 
577.29 
552.72 
567.05 
576.26 
525.08 
560.91 
568.07 
559.89 
563.98 
562.96 
528.16 
555.79 
583.43 
591.62 
550.67 
580.36 
550.67 
581.38 
533.27 
566.03 
557.84 
548.63 
566.03 
560.91 
577.29 
577.29 
601.85 
546.58 
528.16 
522.01 
550.67 
540.44 
559.89 
543.51 
542.49 
527.13 
557.84 
523.04 
525.08 
554.77 
509.73 
560.91 
555.79 
582.40 
532.25 
537.37 
569.10 
501.54 
552.72 
556.81 
510.75 
531.23 
515.87 
544.53 
519.97 
525.08 
551.70 
525.08 
528.16 
550.67 
535.32 
542.49 
532.25 
542.49 
526.11 
519.97 
535.32 
514.85 
563.98 
547.60 
539.41 
540.44 
516.90 
531.23 
532.25 
491.31 
533.27 
562.96 
538.39 
554.77 
507.68 
545.56 
551.70 
516.90 
492.33 
496.43 
529.18 
494.38 
516.90 
503.59 
489.26 
494.38 
502.57 
540.44 
532.25 
502.57 
500.52 
500.52 
508.71 
524.06 
522.01 
518.94 
531.23 
508.71 
508.71 
538.39 
489.26 
537.37 
496.43 
532.25 
476.98 
543.51 
517.92 
489.26 
552.72 
530.20 
532.25 
507.68 
502.57 
513.83 
504.61 
487.21 
510.75 
512.80 
530.20 
525.08 
498.47 
484.14 
486.19 
494.38 
500.52 
523.04 
465.72 
471.86 
494.38 
511.78 
517.92 
487.21 
482.10 
539.41 
488.24 
517.92 
537.37 
458.55 
462.65 
487.21 
502.57 
495.40 
491.31 
467.77 
526.11 
530.20 
488.24 
535.32 
507.68 
483.12 
518.94 
496.43 
493.35 
462.65 
497.45 
485.17 
501.54 
528.16 
431.94 
515.87 
463.67 
482.10 
513.83 
457.53 
464.69 
465.72 
548.63 
500.52 
476.98 
488.24 
513.83 
507.68 
489.26 
504.61 
505.64 
487.21 
496.43 
489.26 
490.28 
472.88 
458.55 
481.07 
491.31 
512.80 
507.68 
465.72 
529.18 
457.53 
511.78 
494.38 
484.14 
450.37 
499.50 
491.31 
473.91 
440.13 
481.07 
470.84 
467.77 
503.59 
479.02 
500.52 
478.00 
476.98 
461.62 
475.95 
480.05 
463.67 
461.62 
467.77 
452.41 
465.72 
490.28 
483.12 
457.53 
472.88 
428.87 
487.21 
471.86 
465.72 
444.22 
485.17 
489.26 
462.65 
401.23 
456.51 
480.05 
463.67 
508.71 
449.34 
482.10 
481.07 
446.27 
455.48 
456.51 
458.55 
440.13 
471.86 
487.21 
472.88 
476.98 
454.46 
431.94 
478.00 
459.58 
454.46 
455.48 
452.41 
494.38 
452.41 
483.12 
427.85 
431.94 
413.52 
435.01 
440.13 
500.52 
436.04 
427.85 
470.84 
459.58 
455.48 
463.67 
410.45 
486.19 
449.34 
460.60 
447.29 
487.21 
413.52 
427.85 
457.53 
459.58 
450.37 
440.13 
451.39 
442.18 
446.27 
453.44 
451.39 
444.22 
464.69 
437.06 
436.04 
437.06 
456.51 
401.23 
456.51 
432.96 
432.96 
426.82 
453.44 
466.74 
436.04 
480.05 
450.37 
468.79 
422.73 
444.22 
422.73 
436.04 
458.55 
433.99 
438.08 
440.13 
438.08 
440.13 
421.71 
409.42 
413.52 
485.17 
416.59 
425.80 
423.75 
465.72 
417.61 
440.13 
436.04 
388.95 
405.33 
413.52 
431.94 
426.82 
426.82 
469.81 
398.16 
431.94 
432.96 
407.38 
418.63 
416.59 
444.22 
398.16 
416.59 
443.20 
393.05 
408.40 
385.88 
420.68 
431.94 
471.86 
396.12 
404.31 
395.09 
400.21 
426.82 
415.56 
414.54 
430.92 
440.13 
385.88 
438.08 
413.52 
423.75 
410.45 
393.05 
384.86 
444.22 
435.01 
402.26 
391.00 
414.54 
394.07 
410.45 
